# File gs1826-24_5.14h.dat
# Created Sat Oct 31 10:23:47 2015
#
# This profile forms part of the sample assembled for the paper
#   "Thermonuclear burst observations for model comparisons: a reference
#   catalogue" by Galloway, Goodwin & Keek (2017), PASA 34, e019
#   DOI: https://doi.org/10.1017/pasa.2017.12; published online: 19/4/2017
#
# The dataset can be cited as
#   Duncan K. Galloway (2017). Dataset: Thermonuclear Burst Observations for
#   Model Comparisons: A Reference Sample.
#   DOI: http://dx.doi.org/10.4225/50/58e720d5d95a7
#
# This profile is from MINBAR burst #2393
# (#7 in Galloway et al. 2008, ApJS 179, 360), of
# GS 1826-24, observed on MJD 50988.82504
# by the Rossi X-ray Timing Explorer (RXTE).
# 
# For full details of the source sample see
# http://burst.sci.monash.edu/minbar 
#
# The burst recurrence time is derived from a linear fit to the time of
# this burst and optical bursts observed at the same time; see Thompson et
# al. 2008, ApJ 681, 506 for details.
# The fit incorporates intrinsic variations in the recurrence time,
# arising (for example) from the variations in accretion rate over the
# bursting interval
#
# Assumed cycle count is 
# [0,1,5,6,10,11] 
# Average recurrence time is 5.14 +/- 0.07 hr
#
# This version of the data now includes deadtime correction (see 
# http://heasarc.gsfc.nasa.gov/docs/xte/recipes/pca_deadtime.html)
# and has the updated effective area of the v11.7 responses (see
# http://www.universe.nasa.gov/xrays/programs/rxte/pca/doc/rmf/pca-arf-2011
#
# All uncertainties below are at 1-sigma (68%) confidence. Note that the
# time value specifies the BEGINNING of the time bin
#
# Columns are:
# 'Time [s]' 'dt [s]' 'flux [10^-9 erg/cm^2/s]' 'flux error [10^-9 erg/cm^2/s]' 'blackbody temperature kT [keV]' 'kT error [keV]' 'blackbody normalisation K_bb [(km/d_10kpc)^2]' 'K_bb error [(km/d_10kpc)^2]' chi-sq
 -2.000  0.250   1.28    0.234   1.355  0.168   35.345  19.704  0.855
 -1.750  0.250   1.52    0.266   1.856  0.227   11.879   5.757  1.068
 -1.500  0.250   1.87    0.276   1.880  0.171   13.944   4.967  1.343
 -1.250  0.250   2.86    0.313   1.766  0.124   27.329   7.727  0.884
 -1.000  0.250   4.10    0.380   1.729  0.088   42.593   8.711  1.101
 -0.750  0.250   5.09    0.398   1.904  0.090   36.011   6.595  0.916
 -0.500  0.250   6.37    0.449   1.960  0.084   40.135   6.587  1.123
 -0.250  0.250   7.68    0.449   1.940  0.070   50.387   7.029  0.774
  0.000  0.250   9.25    0.476   1.818  0.059   78.641  10.063  1.125
  0.250  0.250   8.92    0.528   1.951  0.064   57.209   7.233  1.125
  0.500  0.250  10.16    0.533   1.881  0.054   75.465   8.540  0.708
  0.750  0.250  10.94    0.576   1.908  0.056   76.707   8.751  1.240
  1.000  0.250  11.92    0.608   2.053  0.058   62.409   6.704  0.746
  1.250  0.250  12.79    0.595   1.985  0.051   76.626   7.614  1.181
  1.500  0.250  14.45    0.587   1.915  0.047   99.768   9.557  1.076
  1.750  0.250  14.66    0.581   1.858  0.045  114.218  10.861  0.987
  2.000  0.250  15.86    0.626   1.961  0.047   99.658   9.188  0.581
  2.250  0.250  16.25    0.705   1.966  0.043  101.130   8.563  1.067
  2.500  0.250  17.20    0.661   2.039  0.047   92.362   8.066  1.155
  2.750  0.250  17.81    0.639   1.949  0.042  114.540   9.594  1.144
  3.000  0.250  18.89    0.704   1.959  0.044  119.243  10.331  1.154
  3.250  0.250  20.27    0.752   2.000  0.040  117.784   9.172  0.512
  3.500  0.250  20.63    0.753   2.049  0.044  108.736   8.955  1.193
  3.750  0.250  21.42    0.724   2.012  0.041  121.490   9.454  0.981
  4.000  0.250  21.61    0.789   2.030  0.039  118.341   8.830  0.773
  4.250  0.250  23.30    0.827   2.058  0.039  120.685   8.822  0.976
  4.500  0.250  24.72    0.797   2.091  0.040  120.175   8.653  0.982
  4.750  0.250  25.63    0.879   2.111  0.039  119.994   8.320  1.089
  5.000  0.250  24.95    0.793   2.061  0.039  128.478   9.257  0.817
  5.250  0.250  26.15    0.840   2.121  0.040  119.932   8.546  0.942
  5.500  0.250  27.97    0.940   2.159  0.038  119.520   7.995  0.686
  5.750  0.250  27.83    0.903   2.208  0.041  108.852   7.521  1.050
  6.000  0.250  28.14    0.939   2.235  0.042  104.714   7.288  1.199
  6.250  0.250  27.32    0.930   2.156  0.040  117.484   8.110  0.958
  6.500  0.250  29.20    0.995   2.240  0.040  107.675   7.149  1.143
  6.750  0.250  29.09    0.960   2.180  0.038  119.712   7.777  0.782
  7.000  0.250  30.60    1.032   2.249  0.040  111.084   7.234  0.806
  7.250  0.250  29.97    0.982   2.206  0.038  117.493   7.552  1.083
  7.500  0.250  29.66    1.042   2.333  0.043   93.070   6.235  1.041
  7.750  0.250  30.95    1.046   2.292  0.041  104.221   6.854  0.843
  8.000  0.250  29.75    1.012   2.241  0.040  109.588   7.218  0.916
  8.250  0.250  29.64    1.015   2.289  0.041  100.408   6.550  0.826
  8.500  0.250  30.20    1.019   2.246  0.040  110.304   7.218  0.872
  8.750  0.250  29.47    0.935   2.194  0.040  118.193   7.993  1.226
  9.000  0.250  29.64    0.995   2.220  0.039  113.461   7.402  1.129
  9.250  0.250  29.60    0.994   2.216  0.039  114.067   7.442  1.202
  9.500  0.250  29.04    0.975   2.180  0.040  119.503   8.069  0.664
  9.750  0.250  29.12    1.014   2.282  0.042   99.756   6.747  0.881
 10.000  0.250  29.86    0.997   2.214  0.040  115.495   7.707  0.972
 10.250  0.250  28.18    0.904   2.186  0.040  114.717   7.881  0.890
 10.500  0.250  27.67    0.946   2.201  0.039  109.610   7.204  1.101
 10.750  0.250  30.30    1.026   2.276  0.042  104.925   7.001  0.793
 11.000  0.250  28.39    0.913   2.184  0.040  116.003   7.986  0.951
 11.250  0.250  25.40    0.848   2.138  0.042  113.044   8.243  0.840
 11.500  0.250  26.62    0.847   2.133  0.040  119.562   8.356  0.873
 11.750  0.250  26.36    0.827   2.090  0.039  128.423   9.013  1.428
 12.000  0.250  25.01    0.871   2.099  0.039  119.628   8.506  0.909
 12.250  0.250  25.01    0.862   2.070  0.038  126.548   8.824  0.650
 12.500  0.250  26.16    0.922   2.175  0.041  108.650   7.595  1.377
 12.750  0.250  24.94    0.854   2.057  0.038  129.519   9.093  0.786
 13.000  0.250  23.67    0.808   2.117  0.042  109.491   8.214  1.212
 13.250  0.250  22.88    0.793   2.045  0.042  121.449   9.606  0.879
 13.500  0.250  22.38    0.765   2.097  0.042  107.498   8.131  1.370
 13.750  0.500  21.53    0.684   1.989  0.038  127.818   9.382  1.707
 14.250  0.500  20.82    0.563   2.013  0.030  117.744   6.646  1.028
 14.750  0.500  20.07    0.548   2.012  0.030  113.850   6.486  1.283
 15.250  0.500  19.87    0.505   2.023  0.031  110.196   6.501  1.076
 15.750  0.500  19.44    0.531   1.963  0.029  121.660   7.049  1.715
 16.250  0.500  18.50    0.511   1.978  0.029  112.288   6.490  0.591
 16.750  0.500  17.54    0.493   1.934  0.029  116.376   6.943  0.950
 17.250  0.500  17.03    0.476   1.890  0.029  124.001   7.468  1.063
 17.750  0.500  17.14    0.488   1.890  0.029  124.828   7.664  1.508
 18.250  0.500  16.77    0.465   1.880  0.028  124.682   7.479  1.295
 18.750  0.500  16.64    0.480   1.867  0.029  127.335   7.973  0.746
 19.250  0.500  15.65    0.416   1.861  0.031  121.185   7.867  1.202
 19.750  0.500  15.94    0.452   1.888  0.029  116.507   7.108  0.905
 20.250  1.000  15.16    0.404   1.911  0.031  105.571   6.758  0.623
 21.250  1.000  15.01    0.317   1.845  0.021  120.369   5.574  0.854
 22.250  1.000  13.93    0.314   1.799  0.022  123.564   6.118  1.214
 23.250  1.000  13.75    0.304   1.829  0.022  114.280   5.509  0.680
 24.250  1.000  13.17    0.304   1.814  0.023  112.959   5.707  1.097
 25.250  1.000  13.21    0.305   1.750  0.022  130.832   6.633  1.004
 26.250  1.000  12.36    0.281   1.784  0.022  113.234   5.631  0.992
 27.250  1.000  12.19    0.292   1.729  0.022  126.608   6.665  1.762
 28.250  1.000  12.30    0.291   1.734  0.022  126.465   6.571  1.520
 29.250  1.000  11.82    0.287   1.770  0.023  111.885   5.973  0.778
 30.250  1.000  11.17    0.254   1.754  0.024  109.584   6.152  0.823
 31.250  1.000  11.10    0.250   1.697  0.023  124.411   6.900  1.299
 32.250  1.000  11.07    0.277   1.659  0.022  135.893   7.419  1.229
 33.250  1.000  10.42    0.249   1.685  0.024  120.025   7.057  1.498
 34.250  1.000  10.74    0.277   1.691  0.023  121.965   6.897  1.874
 35.250  1.000  10.29    0.248   1.720  0.025  109.286   6.463  1.099
 36.250  1.000  10.11    0.244   1.691  0.025  114.864   6.826  1.141
 37.250  2.000   9.69    0.237   1.645  0.024  123.112   7.482  1.488
 39.250  2.000   9.30    0.185   1.655  0.017  115.188   5.007  1.127
 41.250  2.000   9.03    0.165   1.640  0.018  115.969   5.229  0.894
 43.250  2.000   8.55    0.176   1.618  0.017  115.790   5.175  1.000
 45.250  2.000   8.32    0.161   1.635  0.019  108.148   5.148  1.270
 47.250  2.000   8.13    0.160   1.621  0.019  109.490   5.438  2.726
 49.250  2.000   7.89    0.155   1.631  0.019  103.739   5.049  1.493
 51.250  2.000   7.49    0.152   1.644  0.020   95.358   4.748  1.217
 53.250  2.000   7.24    0.154   1.559  0.019  113.928   5.932  1.059
 55.250  2.000   6.79    0.149   1.565  0.021  105.162   5.840  2.450
 57.250  2.000   6.61    0.145   1.566  0.020  102.018   5.422  1.276
 59.250  4.000   6.21    0.141   1.586  0.021   91.165   5.084  1.040
 63.250  4.000   5.95    0.096   1.559  0.016   93.507   4.009  1.894
 67.250  4.000   5.35    0.094   1.527  0.017   91.247   4.227  2.695
 71.250  4.000   5.13    0.091   1.561  0.017   80.253   3.752  2.265
 75.250  4.000   4.53    0.087   1.536  0.019   75.648   3.859  1.723
 79.250  8.000   4.16    0.087   1.481  0.019   80.293   4.444  2.305
 87.250  8.000   3.18    0.059   1.418  0.016   73.227   3.603  3.083
 95.250  8.000   2.56    0.055   1.444  0.020   54.828   3.154  3.610
103.250 16.000   1.96    0.045   1.424  0.024   44.245   3.181  3.162
119.250 16.000   1.03    0.032   1.337  0.031   29.892   2.893  3.626
135.250 16.000   0.62    0.030   1.287  0.048   20.998   3.318  2.039
151.250 15.620   0.42    0.029   1.269  0.067   15.180   3.433  1.417
