# File gs1826-24_5.74.dat
# Copied from zamfir3.dat, 2015 Apr 27
# Created Mon Dec 12 13:22:45 2011 with burst_average.pro
#
# Average of bursts  1, 2, 3, 4, 5 of 1826-24
# observed by RXTE (Galloway et al. 2008, ApJS 179, 360)
# (burst IDs 157, 158, 159, 160, 161; 159 is the key)
#
# Assumed cycle count is 
# [0,1,x,x+2,x+4] where x is approximately 870
# Average recurrence time (determined from the mean & standard deviation
# of the separation of the first pair, and half the separation of the last
# two pairs) is 5.74+/-0.13 hr
#
# This version of the data now includes deadtime correction (see 
# http://heasarc.gsfc.nasa.gov/docs/xte/recipes/pca_deadtime.html)
# and has the updated effective area of the v11.7 responses (see
# http://www.universe.nasa.gov/xrays/programs/rxte/pca/doc/rmf/pca-arf-2011
#
# Average computed by first cross-correlating 8-s of the burst (beginning
# at t=-2s) and adding an offset to more precisely line them up.
#
# Columns are:
# Time [s], dt [s], average flux and error [10^-9 erg/cm^2/s], average
# blackbody temperature and error [keV], average blackbody normalisation
# and error [(km/d_10kpc)^2]
#
# Note that the time value specifies the BEGINNING of the time bin
 -1.62  0.25    0.6046    0.2494     1.891    0.5411     7.705     5.346
 -1.38  0.25    0.9721    0.2356     1.522    0.2462     24.37     22.54
 -1.12  0.25     1.527    0.2212     1.672    0.1763     20.99     12.34
 -0.88  0.25     2.723    0.5243     1.778   0.09433     25.70     6.017
 -0.62  0.25     3.983    0.6653     1.792    0.1420     37.24     9.855
 -0.38  0.25     5.291    0.5259     1.871   0.06090     41.10     7.096
 -0.12  0.25     6.408    0.6349     1.900   0.02868     46.17     6.953
  0.12  0.25     7.593    0.6263     1.901   0.07727     55.10     10.08
  0.38  0.25     8.993    0.4959     1.920   0.04614     61.49     4.475
  0.62  0.25     10.45    0.8305     1.993   0.04168     61.61     2.937
  0.88  0.25     11.39    0.7345     1.991   0.03855     67.41     3.747
  1.12  0.25     12.40    0.6872     1.984   0.03161     74.77     6.106
  1.38  0.25     13.13    0.8066     1.985   0.02836     78.79     5.822
  1.62  0.25     14.38     1.219     2.031   0.05059     78.45     5.064
  1.88  0.25     15.14     1.029     2.025   0.05973     84.13     9.599
  2.12  0.25     15.60    0.6183     2.026   0.02090     86.36     5.932
  2.38  0.25     16.52    0.9194     2.046   0.02906     87.77     1.915
  2.62  0.25     18.12    0.8337     2.075   0.05354     91.18     5.949
  2.88  0.25     18.80    0.6860     2.047   0.04895     99.79     6.478
  3.12  0.25     20.03    0.6738     2.064   0.04368     103.1     7.444
  3.38  0.25     21.14    0.4997     2.085   0.05659     104.9     12.18
  3.62  0.25     21.81    0.8040     2.065   0.03356     111.8     7.554
  3.88  0.25     22.88     1.212     2.089   0.05702     111.9     7.913
  4.12  0.25     23.49    0.8666     2.078   0.04310     117.8     12.91
  4.38  0.25     24.42    0.6724     2.100   0.03223     116.9     6.065
  4.62  0.25     25.29     1.091     2.147   0.04243     111.2     4.920
  4.88  0.25     25.97    0.9272     2.167   0.07002     110.4     13.32
  5.12  0.25     27.26    0.9124     2.156   0.04131     118.1     7.804
  5.38  0.25     28.22    0.6092     2.181   0.04763     116.6     10.76
  5.62  0.25     28.18    0.9724     2.198   0.02085     112.3     3.991
  5.88  0.25     29.06    0.5740     2.213   0.02165     112.8     4.833
  6.12  0.25     29.29    0.8979     2.209   0.02320     114.3     5.104
  6.38  0.25     29.35    0.8559     2.234   0.03138     109.6     5.521
  6.62  0.25     29.58    0.9279     2.256   0.03258     106.3     4.130
  6.88  0.25     30.54    0.4617     2.264   0.03627     108.3     5.881
  7.12  0.25     30.99    0.2501     2.259   0.03179     110.8     6.283
  7.38  0.25     30.53    0.4644     2.260   0.02704     109.1     6.116
  7.62  0.25     30.53    0.4696     2.247   0.03428     111.6     6.876
  7.88  0.25     30.28     1.053     2.270   0.04899     106.3     7.939
  8.12  0.25     30.18     1.091     2.276   0.04306     104.7     6.329
  8.38  0.25     30.62     1.013     2.281   0.03559     105.3     6.311
  8.62  0.25     30.39     1.280     2.291   0.02018     102.5     3.757
  8.88  0.25     30.50    0.9237     2.282   0.03820     104.9     7.675
  9.12  0.25     29.97    0.8387     2.244   0.02048     110.2     4.364
  9.38  0.25     30.26    0.4945     2.239   0.04295     112.5     9.812
  9.62  0.25     29.95    0.6260     2.259   0.03915     107.3     8.197
  9.88  0.25     28.93    0.5757     2.204   0.03825     114.2     7.259
 10.12  0.25     28.19    0.9826     2.222   0.04446     108.3     10.74
 10.38  0.25     27.71     1.315     2.197   0.05196     111.1     11.01
 10.62  0.25     28.14     1.098     2.209   0.04322     110.3     10.68
 10.88  0.25     27.78     1.146     2.175   0.01969     115.2     2.910
 11.12  0.25     26.66     1.143     2.144   0.04876     117.6     8.252
 11.38  0.25     25.77    0.7062     2.115   0.03601     119.9     6.435
 11.62  0.25     25.23    0.8946     2.116   0.02295     117.1     4.050
 11.88  0.25     24.76    0.7908     2.103   0.02113     117.7     3.894
 12.12  0.25     24.32     1.012     2.088   0.02811     119.1     4.209
 12.38  0.25     24.34    0.9148     2.084   0.03858     120.0     6.529
 12.62  0.25     24.01    0.6981     2.069   0.02891     121.9     5.083
 12.88  0.25     23.43    0.9881     2.064   0.02609     120.2     5.639
 13.12  0.25     22.72     1.049     2.042   0.04239     121.8     9.150
 13.38  0.25     22.67    0.7490     2.034   0.03279     123.4     7.209
 13.62  0.25     22.31    0.4025     2.044   0.03919     119.1     8.787
 14.00  0.50     21.47    0.6604     2.017   0.05768     121.2     11.83
 14.50  0.50     20.92    0.3718     1.977   0.04675     127.9     9.905
 15.00  0.50     20.12    0.5709     1.967   0.02327     125.2     5.504
 15.50  0.50     18.95    0.6413     1.959   0.02609     119.8     7.071
 16.00  0.50     18.61    0.7348     1.929   0.01848     124.9     5.698
 16.50  0.50     17.75    0.5351     1.916   0.03804     122.8     7.593
 17.00  0.50     17.30    0.4584     1.896   0.05048     125.1     10.78
 17.50  0.50     16.90    0.5992     1.867   0.02833     129.5     5.404
 18.00  0.50     16.62    0.7331     1.871   0.02047     126.2     6.732
 18.50  0.50     16.26    0.5182     1.865   0.01868     124.9     4.408
 19.00  0.50     16.00    0.4956     1.855   0.02605     125.8     5.458
 19.50  0.50     15.49    0.4266     1.844   0.02925     125.0     7.453
 20.00  0.50     14.83    0.4102     1.813   0.03563     127.9     7.086
 20.50  0.50     14.62    0.3985     1.801   0.02650     129.3     4.861
 21.00  0.50     14.26    0.3961     1.781   0.03783     132.2     9.390
 21.50  0.50     14.24    0.4868     1.783   0.04911     131.6     11.47
 22.25  1.00     13.88    0.3823     1.792   0.01536     125.2     2.563
 23.25  1.00     13.24    0.5668     1.779   0.02242     123.0     8.047
 24.25  1.00     12.95    0.4952     1.752   0.01942     127.7     5.977
 25.25  1.00     12.94    0.4815     1.758   0.02234     125.8     2.498
 26.25  1.00     12.44    0.3933     1.733   0.01685     128.4     6.291
 27.25  1.00     12.21    0.5480     1.742   0.02162     123.3     4.317
 28.25  1.00     11.82    0.4543     1.739   0.02317     120.2     4.178
 29.25  1.00     11.47    0.4523     1.691   0.02747     130.8     9.006
 30.25  1.00     11.13    0.6279     1.696   0.02260     125.2     7.560
 31.25  1.00     10.87    0.4172     1.671   0.02805     129.6     5.504
 32.25  1.00     10.69    0.4006     1.669   0.03452     128.1     6.723
 33.25  1.00     10.64    0.4064     1.673   0.01725     126.5     7.436
 34.25  1.00     10.11    0.5357     1.655   0.02452     125.2     3.015
 35.25  1.00     10.07    0.4525     1.623   0.04206     135.4     11.30
 36.25  1.00     9.802    0.5003     1.623   0.04361     131.8     12.59
 37.25  1.00     9.561    0.4933     1.615   0.05005     131.4     12.77
 38.25  1.00     9.427    0.3678     1.622   0.03560     126.9     6.984
 39.75  2.00     9.073    0.3337     1.605   0.01952     127.2     4.393
 41.75  2.00     8.680    0.4276     1.602   0.03768     122.9     10.37
 43.75  2.00     8.441    0.5356     1.582   0.04737     125.7     9.560
 45.75  2.00     7.956    0.4522     1.566   0.02550     123.0     3.380
 47.75  2.00     7.520    0.4325     1.548   0.03125     121.8     7.892
 49.75  2.00     7.728    0.3924     1.553   0.03921     123.6     7.646
 51.75  2.00     7.213    0.4131     1.544   0.02508     118.0     7.515
 53.75  2.00     6.830    0.4174     1.521   0.02371     118.5     6.569
 55.75  2.00     6.523    0.2370     1.508   0.01440     117.2     7.129
 57.75  2.00     6.252    0.2304     1.497   0.02533     115.8     7.624
 59.75  2.00     6.078    0.1852     1.475   0.02178     119.7     9.690
 61.75  2.00     5.632    0.3763     1.466   0.02974     113.3     5.395
 63.75  2.00     5.470    0.2810     1.453   0.03649     114.3     9.312
 66.75  4.00     5.145    0.3263     1.435   0.02917     112.9     5.995
 70.75  4.00     4.706    0.3303     1.433   0.02539     103.4     2.308
 74.75  4.00     4.460    0.2455     1.431   0.03757     98.96     6.654
 78.75  4.00     4.116    0.1293     1.423   0.02327     93.41     5.632
 82.75  4.00     3.709    0.2110     1.407   0.03882     88.34     7.341
 86.75  4.00     3.585    0.1920     1.419   0.03683     82.36     5.932
 92.75  8.00     2.882    0.1363     1.364   0.02588     77.35     5.362
100.75  8.00     2.314   0.05943     1.367   0.02257     61.74     3.612
108.75  8.00     1.968    0.1912     1.328   0.02469     57.94     4.490
120.75 16.00    0.9120    0.4092    0.7470    0.4082     28.00     12.66
136.75 16.00     0.000     0.000     0.000     0.000     0.000     0.000
160.75 32.00   0.03685   0.03516    0.1172    0.1124     1.403     1.334
177.76  2.02    0.3760   0.05306     1.243   0.01152     14.72     2.524
